##  Star in a Box 
## https://lco.global/starinabox 
## Data for a 0.65 solar mass star
## Columns are:
## Time, Radius (R_sun), Luminosity (L_sun), Surface Temperature (K), Mass (M_sun)
0.0, 0.606, 0.09290, 4111, 0.650
2896.0, 0.611, 0.09590, 4127, 0.650
5791.0, 0.617, 0.09931, 4145, 0.650
8687.0, 0.622, 0.10323, 4167, 0.650
11580.0, 0.628, 0.10765, 4191, 0.650
14480.0, 0.634, 0.11262, 4218, 0.650
17370.0, 0.640, 0.11825, 4248, 0.650
20270.0, 0.648, 0.12457, 4281, 0.650
23170.0, 0.655, 0.13167, 4314, 0.650
26060.0, 0.664, 0.13967, 4351, 0.650
28960.0, 0.673, 0.14866, 4388, 0.650
31850.0, 0.683, 0.15882, 4428, 0.650
34750.0, 0.695, 0.17037, 4469, 0.650
37640.0, 0.708, 0.18361, 4511, 0.650
40540.0, 0.723, 0.19907, 4554, 0.650
43440.0, 0.741, 0.21757, 4599, 0.650
46330.0, 0.763, 0.24044, 4646, 0.650
49230.0, 0.792, 0.27015, 4697, 0.650
52120.0, 0.831, 0.31117, 4750, 0.650
55020.0, 0.887, 0.37188, 4806, 0.650
57610.0, 0.972, 0.45677, 4834, 0.650
57910.0, 0.987, 0.46979, 4833, 0.650
58070.0, 1.006, 0.48484, 4824, 0.650
58220.0, 1.025, 0.50038, 4816, 0.650
58370.0, 1.045, 0.51654, 4808, 0.650
58520.0, 1.065, 0.53309, 4800, 0.650
58680.0, 1.086, 0.55030, 4792, 0.650
58830.0, 1.107, 0.56794, 4784, 0.650
58980.0, 1.128, 0.58614, 4776, 0.650
59130.0, 1.150, 0.60492, 4768, 0.650
59290.0, 1.172, 0.62445, 4760, 0.650
59440.0, 1.195, 0.64447, 4752, 0.650
59590.0, 1.218, 0.66512, 4744, 0.650
59750.0, 1.242, 0.68644, 4736, 0.650
59900.0, 1.266, 0.70843, 4728, 0.650
60050.0, 1.290, 0.73114, 4721, 0.650
60200.0, 1.315, 0.75457, 4712, 0.649
60360.0, 1.340, 0.77875, 4704, 0.649
60510.0, 1.366, 0.80371, 4697, 0.649
60660.0, 1.393, 0.82947, 4689, 0.649
60810.0, 1.419, 0.85605, 4681, 0.649
60970.0, 1.447, 0.88349, 4673, 0.649
60970.0, 1.447, 0.88349, 4673, 0.649
60970.0, 1.447, 0.88349, 4673, 0.649
60980.0, 1.451, 0.88879, 4673, 0.649
60990.0, 1.460, 0.89950, 4673, 0.649
60990.0, 1.455, 0.89413, 4673, 0.649
61000.0, 1.464, 0.90511, 4673, 0.649
61010.0, 1.469, 0.91054, 4673, 0.649
61020.0, 1.473, 0.91601, 4673, 0.649
61030.0, 1.477, 0.92151, 4674, 0.649
61040.0, 1.482, 0.92704, 4674, 0.649
61050.0, 1.486, 0.93261, 4674, 0.649
61060.0, 1.495, 0.94384, 4674, 0.649
61060.0, 1.490, 0.93821, 4674, 0.649
61070.0, 1.499, 0.94973, 4674, 0.649
61080.0, 1.504, 0.95543, 4674, 0.649
61090.0, 1.508, 0.96117, 4674, 0.649
61100.0, 1.513, 0.96694, 4674, 0.649
61110.0, 1.522, 0.97859, 4674, 0.649
61110.0, 1.517, 0.97275, 4674, 0.649
61120.0, 1.527, 0.98446, 4674, 0.649
61130.0, 1.531, 0.99038, 4674, 0.649
61140.0, 1.536, 0.99655, 4674, 0.649
61150.0, 1.545, 1.00856, 4674, 0.649
61150.0, 1.540, 1.00254, 4674, 0.649
61160.0, 1.550, 1.01461, 4675, 0.649
61170.0, 1.554, 1.02070, 4675, 0.649
61180.0, 1.559, 1.02683, 4675, 0.649
61190.0, 1.568, 1.03920, 4675, 0.649
61190.0, 1.564, 1.03300, 4675, 0.649
61200.0, 1.573, 1.04568, 4675, 0.649
61210.0, 1.578, 1.05196, 4675, 0.649
61220.0, 1.587, 1.06463, 4675, 0.649
61220.0, 1.582, 1.05828, 4675, 0.649
61230.0, 1.592, 1.07103, 4675, 0.649
61240.0, 1.597, 1.07746, 4675, 0.649
61250.0, 1.601, 1.08393, 4675, 0.649
61260.0, 1.611, 1.09724, 4675, 0.649
61260.0, 1.606, 1.09044, 4675, 0.649
61270.0, 1.616, 1.10382, 4675, 0.649
61280.0, 1.626, 1.11712, 4675, 0.649
61280.0, 1.621, 1.11045, 4675, 0.649
61290.0, 1.630, 1.12383, 4675, 0.649
61300.0, 1.635, 1.13058, 4675, 0.649
61310.0, 1.645, 1.14419, 4675, 0.649
61310.0, 1.640, 1.13737, 4675, 0.649
61320.0, 1.650, 1.15107, 4675, 0.649
61330.0, 1.655, 1.15824, 4675, 0.649
61340.0, 1.665, 1.17220, 4675, 0.649
61340.0, 1.660, 1.16520, 4675, 0.649
61350.0, 1.670, 1.17923, 4675, 0.649
61360.0, 1.680, 1.19344, 4675, 0.649
61360.0, 1.675, 1.18631, 4675, 0.649
61370.0, 1.685, 1.20060, 4675, 0.649
61380.0, 1.696, 1.21535, 4675, 0.649
61380.0, 1.690, 1.20781, 4675, 0.649
61390.0, 1.701, 1.22264, 4675, 0.649
61400.0, 1.711, 1.23737, 4675, 0.649
61400.0, 1.706, 1.22999, 4675, 0.649
61410.0, 1.716, 1.24480, 4675, 0.649
61420.0, 1.727, 1.25980, 4675, 0.649
61420.0, 1.721, 1.25228, 4675, 0.649
61430.0, 1.732, 1.26736, 4675, 0.649
61440.0, 1.742, 1.28292, 4675, 0.649
61440.0, 1.737, 1.27526, 4675, 0.649
61450.0, 1.747, 1.29062, 4675, 0.649
61460.0, 1.758, 1.30617, 4674, 0.649
61460.0, 1.753, 1.29837, 4675, 0.649
61470.0, 1.764, 1.31401, 4674, 0.649
61480.0, 1.774, 1.32984, 4674, 0.649
61480.0, 1.769, 1.32190, 4674, 0.649
61490.0, 1.780, 1.33814, 4674, 0.649
61500.0, 1.790, 1.35425, 4674, 0.649
61500.0, 1.785, 1.34617, 4674, 0.649
61510.0, 1.801, 1.37057, 4674, 0.649
61510.0, 1.796, 1.36239, 4674, 0.649
61520.0, 1.807, 1.37880, 4674, 0.649
61530.0, 1.818, 1.39540, 4674, 0.649
61530.0, 1.812, 1.38708, 4674, 0.649
61540.0, 1.829, 1.41254, 4674, 0.649
61540.0, 1.823, 1.40411, 4674, 0.649
61550.0, 1.834, 1.42102, 4674, 0.649
61560.0, 1.845, 1.43814, 4674, 0.649
61560.0, 1.840, 1.42955, 4674, 0.649
61570.0, 1.857, 1.45546, 4673, 0.649
61570.0, 1.851, 1.44677, 4673, 0.649
61580.0, 1.863, 1.46420, 4673, 0.649
61590.0, 1.874, 1.48218, 4673, 0.649
61590.0, 1.868, 1.47333, 4673, 0.649
61600.0, 1.885, 1.50003, 4673, 0.649
61600.0, 1.880, 1.49108, 4673, 0.649
61610.0, 1.891, 1.50904, 4673, 0.649
61620.0, 1.903, 1.52721, 4673, 0.649
61620.0, 1.897, 1.51810, 4673, 0.649
61630.0, 1.914, 1.54597, 4672, 0.649
61630.0, 1.909, 1.53638, 4673, 0.649
61640.0, 1.926, 1.56459, 4672, 0.649
61640.0, 1.920, 1.55525, 4672, 0.649
61650.0, 1.938, 1.58343, 4672, 0.649
61650.0, 1.932, 1.57398, 4672, 0.649
61660.0, 1.944, 1.59294, 4672, 0.649
61670.0, 1.956, 1.61213, 4672, 0.649
61670.0, 1.950, 1.60251, 4672, 0.649
61680.0, 1.968, 1.63192, 4671, 0.649
61680.0, 1.962, 1.62218, 4672, 0.649
61690.0, 1.980, 1.65158, 4671, 0.649
61690.0, 1.974, 1.64172, 4671, 0.649
61700.0, 1.992, 1.67148, 4671, 0.649
61700.0, 1.986, 1.66150, 4671, 0.649
61710.0, 2.004, 1.69161, 4671, 0.649
61710.0, 1.998, 1.68151, 4671, 0.649
61720.0, 2.017, 1.71238, 4670, 0.649
61720.0, 2.010, 1.70177, 4670, 0.649
61730.0, 2.029, 1.73301, 4670, 0.649
61730.0, 2.023, 1.72266, 4670, 0.649
61740.0, 2.042, 1.75388, 4670, 0.649
61740.0, 2.036, 1.74341, 4670, 0.649
61750.0, 2.054, 1.77501, 4669, 0.649
61750.0, 2.048, 1.76441, 4670, 0.649
61760.0, 2.067, 1.79680, 4669, 0.649
61760.0, 2.061, 1.78567, 4669, 0.649
61770.0, 2.080, 1.81844, 4669, 0.649
61770.0, 2.073, 1.80759, 4669, 0.649
61780.0, 2.093, 1.84035, 4668, 0.649
61780.0, 2.086, 1.82936, 4669, 0.649
61790.0, 2.106, 1.86252, 4668, 0.649
61790.0, 2.099, 1.85140, 4668, 0.649
61800.0, 2.119, 1.88538, 4668, 0.649
61800.0, 2.112, 1.87370, 4668, 0.649
61810.0, 2.132, 1.90810, 4667, 0.649
61810.0, 2.125, 1.89671, 4668, 0.649
61820.0, 2.145, 1.93108, 4667, 0.649
61820.0, 2.138, 1.91955, 4667, 0.649
61830.0, 2.158, 1.95434, 4667, 0.649
61830.0, 2.152, 1.94267, 4667, 0.649
61840.0, 2.179, 1.99022, 4666, 0.649
61840.0, 2.172, 1.97834, 4666, 0.649
61840.0, 2.165, 1.96607, 4666, 0.649
61850.0, 2.192, 2.01419, 4666, 0.649
61850.0, 2.185, 2.00217, 4666, 0.649
61860.0, 2.205, 2.03845, 4664, 0.649
61860.0, 2.199, 2.02628, 4664, 0.649
61870.0, 2.219, 2.06300, 4664, 0.649
61870.0, 2.213, 2.05069, 4664, 0.649
61880.0, 2.240, 2.10087, 4663, 0.649
61880.0, 2.233, 2.08833, 4663, 0.649
61880.0, 2.226, 2.07587, 4664, 0.649
61890.0, 2.254, 2.12618, 4663, 0.649
61890.0, 2.247, 2.11349, 4663, 0.649
61900.0, 2.268, 2.15179, 4662, 0.649
61900.0, 2.261, 2.13895, 4663, 0.649
61910.0, 2.289, 2.19129, 4662, 0.648
61910.0, 2.282, 2.17821, 4662, 0.648
61910.0, 2.275, 2.16471, 4662, 0.648
61920.0, 2.304, 2.21769, 4661, 0.648
61920.0, 2.297, 2.20445, 4661, 0.648
61930.0, 2.325, 2.25788, 4660, 0.648
61930.0, 2.318, 2.24440, 4661, 0.648
61930.0, 2.311, 2.23100, 4661, 0.648
61940.0, 2.340, 2.28560, 4660, 0.648
61940.0, 2.333, 2.27143, 4660, 0.648
61950.0, 2.355, 2.31313, 4659, 0.648
61950.0, 2.347, 2.29932, 4660, 0.648
61960.0, 2.377, 2.35505, 4659, 0.648
61960.0, 2.370, 2.34099, 4659, 0.648
61960.0, 2.362, 2.32702, 4659, 0.648
61970.0, 2.392, 2.38342, 4658, 0.648
61970.0, 2.385, 2.36919, 4658, 0.648
61970.0, 2.399, 2.39828, 4658, 0.648
61980.0, 2.407, 2.41268, 4658, 0.648
61980.0, 2.414, 2.42717, 4657, 0.648
61990.0, 2.422, 2.44174, 4657, 0.648
61990.0, 2.429, 2.45641, 4657, 0.648
61990.0, 2.437, 2.47116, 4657, 0.648
62000.0, 2.445, 2.48599, 4656, 0.648
62000.0, 2.452, 2.50092, 4656, 0.648
62010.0, 2.460, 2.51594, 4656, 0.648
62010.0, 2.468, 2.53163, 4655, 0.648
62010.0, 2.476, 2.54683, 4655, 0.648
62020.0, 2.484, 2.56212, 4655, 0.648
62020.0, 2.491, 2.57751, 4655, 0.648
62020.0, 2.499, 2.59298, 4654, 0.648
62030.0, 2.507, 2.60856, 4654, 0.648
62030.0, 2.515, 2.62422, 4654, 0.648
62030.0, 2.523, 2.63998, 4653, 0.648
62040.0, 2.531, 2.65644, 4653, 0.648
62040.0, 2.539, 2.67239, 4653, 0.648
62050.0, 2.547, 2.68844, 4652, 0.648
62050.0, 2.555, 2.70458, 4652, 0.648
62050.0, 2.563, 2.72082, 4652, 0.648
62060.0, 2.571, 2.73716, 4651, 0.648
62060.0, 2.579, 2.75359, 4651, 0.648
62060.0, 2.587, 2.77013, 4651, 0.648
62070.0, 2.595, 2.78740, 4649, 0.648
62070.0, 2.604, 2.80414, 4649, 0.648
62070.0, 2.612, 2.82098, 4649, 0.648
62080.0, 2.620, 2.83792, 4649, 0.648
62080.0, 2.628, 2.85496, 4648, 0.648
62080.0, 2.637, 2.87210, 4648, 0.648
62090.0, 2.645, 2.88935, 4647, 0.648
62090.0, 2.653, 2.90670, 4647, 0.648
62090.0, 2.662, 2.92483, 4647, 0.648
62100.0, 2.671, 2.94239, 4646, 0.648
62100.0, 2.679, 2.96006, 4646, 0.648
62100.0, 2.687, 2.97783, 4646, 0.648
62110.0, 2.696, 2.99571, 4645, 0.648
62110.0, 2.705, 3.01370, 4645, 0.648
62110.0, 2.713, 3.03180, 4645, 0.648
62120.0, 2.721, 3.05000, 4644, 0.648
62120.0, 2.730, 3.06902, 4644, 0.648
62120.0, 2.739, 3.08745, 4644, 0.648
62130.0, 2.748, 3.10599, 4643, 0.648
62130.0, 2.757, 3.12464, 4643, 0.648
62130.0, 2.765, 3.14340, 4643, 0.648
62130.0, 2.774, 3.16228, 4642, 0.648
62140.0, 2.783, 3.18127, 4642, 0.648
62140.0, 2.792, 3.20037, 4641, 0.648
62140.0, 2.801, 3.22033, 4641, 0.648
62150.0, 2.809, 3.23966, 4641, 0.648
62150.0, 2.818, 3.25912, 4640, 0.648
62150.0, 2.827, 3.27869, 4640, 0.648
62160.0, 2.837, 3.29837, 4639, 0.648
62160.0, 2.846, 3.31818, 4639, 0.648
62160.0, 2.855, 3.33811, 4639, 0.648
62160.0, 2.864, 3.35815, 4638, 0.648
62170.0, 2.873, 3.37909, 4638, 0.648
62170.0, 2.882, 3.39938, 4637, 0.648
62170.0, 2.891, 3.41979, 4637, 0.648
62180.0, 2.901, 3.44033, 4637, 0.648
62180.0, 2.910, 3.46099, 4636, 0.648
62180.0, 2.919, 3.48177, 4636, 0.648
62180.0, 2.929, 3.50268, 4634, 0.648
62190.0, 2.938, 3.52371, 4634, 0.648
62190.0, 2.947, 3.54568, 4634, 0.648
62190.0, 2.957, 3.56697, 4633, 0.648
62200.0, 2.966, 3.58839, 4633, 0.648
62200.0, 2.976, 3.60994, 4632, 0.648
62200.0, 2.985, 3.63162, 4632, 0.648
62200.0, 2.995, 3.65342, 4631, 0.648
62210.0, 3.005, 3.67536, 4631, 0.648
62210.0, 3.014, 3.69743, 4631, 0.648
62210.0, 3.024, 3.71963, 4630, 0.648
62220.0, 3.034, 3.74283, 4630, 0.648
62220.0, 3.044, 3.76530, 4629, 0.648
62220.0, 3.054, 3.78791, 4629, 0.648
62220.0, 3.063, 3.81066, 4628, 0.648
62230.0, 3.073, 3.83354, 4628, 0.648
62230.0, 3.083, 3.85656, 4627, 0.648
62230.0, 3.093, 3.87972, 4627, 0.648
62230.0, 3.102, 3.90301, 4627, 0.648
62240.0, 3.112, 3.92735, 4626, 0.648
62240.0, 3.122, 3.95094, 4626, 0.648
62240.0, 3.133, 3.97466, 4625, 0.648
62240.0, 3.143, 3.99853, 4625, 0.648
62250.0, 3.153, 4.02254, 4624, 0.648
62250.0, 3.163, 4.04669, 4624, 0.648
62250.0, 3.173, 4.07099, 4623, 0.648
62250.0, 3.183, 4.09543, 4623, 0.648
62260.0, 3.194, 4.12098, 4622, 0.648
62260.0, 3.205, 4.14572, 4622, 0.648
62260.0, 3.215, 4.17061, 4621, 0.648
62260.0, 3.226, 4.19566, 4621, 0.648
62270.0, 3.236, 4.22085, 4620, 0.648
62270.0, 3.246, 4.24620, 4620, 0.648
62270.0, 3.257, 4.27169, 4618, 0.648
62270.0, 3.267, 4.29734, 4618, 0.648
62280.0, 3.278, 4.32414, 4617, 0.648
62280.0, 3.289, 4.35011, 4617, 0.648
62280.0, 3.299, 4.37623, 4616, 0.648
62280.0, 3.310, 4.40251, 4616, 0.648
62290.0, 3.320, 4.42894, 4615, 0.648
62290.0, 3.331, 4.45554, 4615, 0.648
62290.0, 3.342, 4.48229, 4614, 0.647
62290.0, 3.353, 4.50921, 4614, 0.647
62290.0, 3.364, 4.53733, 4613, 0.647
62300.0, 3.375, 4.56457, 4613, 0.647
62300.0, 3.386, 4.59198, 4612, 0.647
62300.0, 3.397, 4.61955, 4612, 0.647
62300.0, 3.408, 4.64729, 4611, 0.647
62310.0, 3.419, 4.67520, 4611, 0.647
62310.0, 3.430, 4.70327, 4610, 0.647
62310.0, 3.441, 4.73151, 4610, 0.647
62310.0, 3.452, 4.76102, 4609, 0.647
62310.0, 3.464, 4.78961, 4609, 0.647
62320.0, 3.475, 4.81837, 4608, 0.647
62320.0, 3.487, 4.84730, 4607, 0.647
62320.0, 3.498, 4.87641, 4607, 0.647
62320.0, 3.509, 4.90569, 4606, 0.647
62330.0, 3.520, 4.93515, 4606, 0.647
62330.0, 3.533, 4.96478, 4605, 0.647
62330.0, 3.544, 4.99574, 4605, 0.647
62330.0, 3.555, 5.02574, 4604, 0.647
62330.0, 3.567, 5.05592, 4604, 0.647
62340.0, 3.578, 5.08628, 4603, 0.647
62340.0, 3.590, 5.11682, 4602, 0.647
62340.0, 3.602, 5.14754, 4602, 0.647
62340.0, 3.614, 5.17845, 4600, 0.647
62340.0, 3.626, 5.20955, 4600, 0.647
62350.0, 3.637, 5.24204, 4599, 0.647
62350.0, 3.650, 5.27351, 4599, 0.647
62350.0, 3.662, 5.30518, 4598, 0.647
62350.0, 3.674, 5.33703, 4597, 0.647
62350.0, 3.686, 5.36908, 4597, 0.647
62360.0, 3.697, 5.40132, 4596, 0.647
62360.0, 3.710, 5.43375, 4596, 0.647
62360.0, 3.722, 5.46638, 4595, 0.647
62360.0, 3.734, 5.49921, 4594, 0.647
62360.0, 3.746, 5.53350, 4594, 0.647
62370.0, 3.759, 5.56673, 4593, 0.647
62370.0, 3.771, 5.60015, 4593, 0.647
62370.0, 3.784, 5.63378, 4592, 0.647
62370.0, 3.797, 5.66761, 4591, 0.647
62370.0, 3.809, 5.70164, 4591, 0.647
62380.0, 3.821, 5.73588, 4590, 0.647
62380.0, 3.834, 5.77032, 4590, 0.647
62380.0, 3.847, 5.80631, 4589, 0.647
62380.0, 3.859, 5.84117, 4588, 0.647
62380.0, 3.872, 5.87625, 4588, 0.647
62380.0, 3.885, 5.91153, 4587, 0.647
62390.0, 3.898, 5.94703, 4586, 0.647
62390.0, 3.910, 5.98274, 4586, 0.647
62390.0, 3.924, 6.01866, 4585, 0.647
62390.0, 3.936, 6.05480, 4585, 0.647
62390.0, 3.949, 6.09256, 4584, 0.647
62400.0, 3.963, 6.12915, 4582, 0.647
62400.0, 3.976, 6.16595, 4582, 0.647
62400.0, 3.988, 6.20297, 4581, 0.647
62400.0, 4.002, 6.24022, 4580, 0.647
62400.0, 4.015, 6.27769, 4580, 0.647
62400.0, 4.028, 6.31539, 4579, 0.647
62410.0, 4.042, 6.35331, 4578, 0.647
62410.0, 4.055, 6.39293, 4578, 0.647
62410.0, 4.069, 6.43132, 4577, 0.647
62410.0, 4.082, 6.46994, 4576, 0.647
62410.0, 4.095, 6.50879, 4576, 0.647
62410.0, 4.110, 6.54787, 4575, 0.647
62420.0, 4.123, 6.58719, 4574, 0.647
62420.0, 4.137, 6.62674, 4574, 0.647
62420.0, 4.150, 6.66653, 4573, 0.647
62420.0, 4.164, 6.70811, 4572, 0.647
62420.0, 4.178, 6.74839, 4572, 0.647
62420.0, 4.192, 6.78891, 4571, 0.647
62430.0, 4.206, 6.82967, 4570, 0.647
62430.0, 4.220, 6.87068, 4570, 0.647
62430.0, 4.234, 6.91194, 4569, 0.647
62430.0, 4.248, 6.95344, 4568, 0.647
62430.0, 4.263, 6.99520, 4568, 0.647
62430.0, 4.277, 7.03882, 4567, 0.647
62440.0, 4.290, 7.08109, 4566, 0.647
62440.0, 4.305, 7.12361, 4565, 0.647
62440.0, 4.319, 7.16638, 4565, 0.647
62440.0, 4.334, 7.20941, 4564, 0.646
62440.0, 4.348, 7.25270, 4562, 0.646
62440.0, 4.363, 7.29625, 4562, 0.646
62440.0, 4.377, 7.34007, 4561, 0.646
62450.0, 4.392, 7.38584, 4560, 0.646
62450.0, 4.407, 7.43019, 4559, 0.646
62450.0, 4.422, 7.47481, 4559, 0.646
62450.0, 4.436, 7.51969, 4558, 0.646
62450.0, 4.451, 7.56484, 4557, 0.646
62450.0, 4.466, 7.61027, 4557, 0.646
62460.0, 4.481, 7.65597, 4556, 0.646
62460.0, 4.497, 7.70194, 4555, 0.646
62460.0, 4.511, 7.74997, 4554, 0.646
62460.0, 4.527, 7.79651, 4554, 0.646
62460.0, 4.542, 7.84332, 4553, 0.646
62460.0, 4.557, 7.89042, 4552, 0.646
62460.0, 4.572, 7.93780, 4551, 0.646
62470.0, 4.588, 7.98546, 4551, 0.646
62470.0, 4.603, 8.03341, 4550, 0.646
62470.0, 4.618, 8.08165, 4549, 0.646
62470.0, 4.634, 8.13018, 4548, 0.646
62470.0, 4.649, 8.18088, 4548, 0.646
62470.0, 4.666, 8.23000, 4547, 0.646
62470.0, 4.681, 8.27942, 4546, 0.646
62480.0, 4.697, 8.32914, 4545, 0.646
62480.0, 4.713, 8.37915, 4544, 0.646
62480.0, 4.728, 8.42946, 4544, 0.646
62480.0, 4.745, 8.48008, 4543, 0.646
62480.0, 4.760, 8.53100, 4542, 0.646
62480.0, 4.776, 8.58420, 4540, 0.646
62480.0, 4.793, 8.63575, 4540, 0.646
62480.0, 4.808, 8.68760, 4539, 0.646
62490.0, 4.825, 8.73977, 4538, 0.646
62490.0, 4.842, 8.79225, 4537, 0.646
62490.0, 4.857, 8.84504, 4536, 0.646
62490.0, 4.874, 8.89816, 4536, 0.646
62490.0, 4.891, 8.95159, 4535, 0.646
62490.0, 4.907, 9.00741, 4534, 0.646
62490.0, 4.924, 9.06150, 4533, 0.646
62500.0, 4.941, 9.11591, 4532, 0.646
62500.0, 4.957, 9.17065, 4532, 0.646
62500.0, 4.974, 9.22571, 4531, 0.646
62500.0, 4.991, 9.28111, 4530, 0.646
62500.0, 5.007, 9.33684, 4529, 0.646
62500.0, 5.025, 9.39291, 4528, 0.646
62500.0, 5.042, 9.45148, 4527, 0.646
62500.0, 5.059, 9.50824, 4527, 0.646
62510.0, 5.076, 9.56533, 4526, 0.646
62510.0, 5.093, 9.62277, 4525, 0.646
62510.0, 5.111, 9.68055, 4524, 0.646
62510.0, 5.127, 9.73868, 4523, 0.646
62510.0, 5.145, 9.79716, 4522, 0.646
62510.0, 5.163, 9.85598, 4522, 0.646
62510.0, 5.181, 9.91745, 4521, 0.646
62510.0, 5.198, 9.97700, 4520, 0.646
62510.0, 5.216, 10.03691, 4519, 0.646
62520.0, 5.234, 10.09718, 4518, 0.646
62520.0, 5.252, 10.15781, 4516, 0.646
62520.0, 5.270, 10.21880, 4515, 0.646
62520.0, 5.287, 10.28016, 4515, 0.645
62520.0, 5.305, 10.34189, 4514, 0.645
62520.0, 5.324, 10.40639, 4513, 0.645
62520.0, 5.342, 10.46887, 4512, 0.645
62520.0, 5.360, 10.53174, 4511, 0.645
62530.0, 5.378, 10.59498, 4510, 0.645
62530.0, 5.396, 10.65860, 4509, 0.645
62530.0, 5.415, 10.72260, 4508, 0.645
62530.0, 5.434, 10.78698, 4508, 0.645
62530.0, 5.453, 10.85176, 4507, 0.645
62530.0, 5.470, 10.91943, 4506, 0.645
62530.0, 5.489, 10.98500, 4505, 0.645
62530.0, 5.508, 11.05096, 4504, 0.645
62530.0, 5.527, 11.11732, 4503, 0.645
62540.0, 5.546, 11.18407, 4502, 0.645
62540.0, 5.565, 11.25123, 4501, 0.645
62540.0, 5.585, 11.31879, 4500, 0.645
62540.0, 5.603, 11.38676, 4500, 0.645
62540.0, 5.622, 11.45513, 4499, 0.645
62540.0, 5.642, 11.52657, 4498, 0.645
62540.0, 5.661, 11.59578, 4497, 0.645
62540.0, 5.681, 11.66541, 4496, 0.645
62540.0, 5.700, 11.73546, 4495, 0.645
62540.0, 5.720, 11.80592, 4494, 0.645
62550.0, 5.740, 11.87682, 4493, 0.645
62550.0, 5.760, 11.94813, 4492, 0.645
62550.0, 5.780, 12.01988, 4491, 0.645
62550.0, 5.798, 12.09484, 4490, 0.645
62550.0, 5.818, 12.16746, 4488, 0.645
62550.0, 5.838, 12.24052, 4488, 0.645
62550.0, 5.859, 12.31402, 4487, 0.645
62550.0, 5.879, 12.38797, 4486, 0.645
62550.0, 5.899, 12.46235, 4485, 0.645
62550.0, 5.920, 12.53718, 4484, 0.645
62560.0, 5.940, 12.61247, 4483, 0.645
62560.0, 5.961, 12.69112, 4482, 0.645
62560.0, 5.981, 12.76733, 4481, 0.645
62560.0, 6.002, 12.84399, 4480, 0.645
62560.0, 6.023, 12.92112, 4479, 0.645
62560.0, 6.044, 12.99870, 4478, 0.645
62560.0, 6.065, 13.07676, 4477, 0.645
62560.0, 6.086, 13.15528, 4476, 0.645
62560.0, 6.107, 13.23427, 4475, 0.645
62560.0, 6.128, 13.31680, 4474, 0.645
62570.0, 6.149, 13.39677, 4473, 0.645
62570.0, 6.170, 13.47721, 4472, 0.645
62570.0, 6.192, 13.55814, 4471, 0.644
62570.0, 6.213, 13.63955, 4470, 0.644
62570.0, 6.234, 13.72145, 4469, 0.644
62570.0, 6.256, 13.80384, 4468, 0.644
62570.0, 6.278, 13.88673, 4467, 0.644
62570.0, 6.299, 13.97333, 4466, 0.644
62570.0, 6.321, 14.05724, 4465, 0.644
62570.0, 6.343, 14.14165, 4464, 0.644
62570.0, 6.365, 14.22656, 4463, 0.644
62580.0, 6.387, 14.31199, 4462, 0.644
62580.0, 6.411, 14.39793, 4461, 0.644
62580.0, 6.433, 14.48438, 4460, 0.644
62580.0, 6.455, 14.57136, 4459, 0.644
62580.0, 6.477, 14.66223, 4458, 0.644
62580.0, 6.500, 14.75027, 4457, 0.644
62580.0, 6.522, 14.83884, 4456, 0.644
62580.0, 6.545, 14.92794, 4455, 0.644
62580.0, 6.567, 15.01758, 4453, 0.644
62580.0, 6.590, 15.10776, 4452, 0.644
62580.0, 6.613, 15.19847, 4451, 0.644
62580.0, 6.637, 15.28974, 4450, 0.644
62590.0, 6.660, 15.38509, 4449, 0.644
62590.0, 6.683, 15.47747, 4448, 0.644
62590.0, 6.707, 15.57041, 4447, 0.644
62590.0, 6.730, 15.66390, 4446, 0.644
62590.0, 6.753, 15.75796, 4445, 0.644
62590.0, 6.776, 15.85258, 4444, 0.644
62590.0, 6.801, 15.94777, 4443, 0.644
62590.0, 6.825, 16.04353, 4442, 0.644
62590.0, 6.849, 16.14359, 4441, 0.644
62590.0, 6.872, 16.24052, 4440, 0.644
62590.0, 6.896, 16.33804, 4438, 0.644
62590.0, 6.920, 16.43615, 4437, 0.644
62590.0, 6.945, 16.53484, 4436, 0.644
62600.0, 6.969, 16.63413, 4435, 0.644
62600.0, 6.994, 16.73401, 4434, 0.644
62600.0, 7.018, 16.83449, 4433, 0.644
62600.0, 7.044, 16.93558, 4432, 0.644
62600.0, 7.068, 17.04119, 4431, 0.644
62600.0, 7.093, 17.14352, 4430, 0.643
62600.0, 7.117, 17.24646, 4429, 0.643
62600.0, 7.142, 17.35002, 4428, 0.643
62600.0, 7.168, 17.45420, 4427, 0.643
62600.0, 7.193, 17.55901, 4426, 0.643
62600.0, 7.218, 17.66445, 4424, 0.643
62600.0, 7.243, 17.77051, 4423, 0.643
62600.0, 7.269, 17.88134, 4422, 0.643
62610.0, 7.295, 17.98871, 4421, 0.643
62610.0, 7.320, 18.09673, 4420, 0.643
62610.0, 7.347, 18.20539, 4419, 0.643
62610.0, 7.372, 18.31471, 4418, 0.643
62610.0, 7.398, 18.42468, 4417, 0.643
62610.0, 7.423, 18.53532, 4416, 0.643
62610.0, 7.451, 18.64661, 4414, 0.643
62610.0, 7.477, 18.76290, 4413, 0.643
62610.0, 7.502, 18.87557, 4412, 0.643
62610.0, 7.530, 18.98891, 4411, 0.643
62610.0, 7.556, 19.10293, 4410, 0.643
62610.0, 7.582, 19.21764, 4409, 0.643
62610.0, 7.610, 19.33303, 4408, 0.643
62610.0, 7.637, 19.44912, 4407, 0.643
62620.0, 7.663, 19.56591, 4405, 0.643
62620.0, 7.691, 19.68793, 4404, 0.643
62620.0, 7.718, 19.80615, 4403, 0.643
62620.0, 7.745, 19.92508, 4401, 0.643
62620.0, 7.773, 20.04472, 4400, 0.643
62620.0, 7.800, 20.16508, 4399, 0.643
62620.0, 7.827, 20.28617, 4398, 0.643
62620.0, 7.856, 20.40798, 4396, 0.643
62620.0, 7.883, 20.53052, 4395, 0.643
62620.0, 7.912, 20.65856, 4394, 0.643
62620.0, 7.940, 20.78261, 4393, 0.643
62620.0, 7.967, 20.90740, 4392, 0.642
62620.0, 7.997, 21.03294, 4391, 0.642
62620.0, 8.024, 21.15924, 4389, 0.642
62620.0, 8.054, 21.28629, 4388, 0.642
62630.0, 8.082, 21.41411, 4387, 0.642
62630.0, 8.110, 21.54269, 4386, 0.642
62630.0, 8.140, 21.67704, 4385, 0.642
62630.0, 8.168, 21.80720, 4383, 0.642
62630.0, 8.198, 21.93815, 4382, 0.642
62630.0, 8.226, 22.06988, 4381, 0.642
62630.0, 8.257, 22.20240, 4380, 0.642
62630.0, 8.285, 22.33572, 4379, 0.642
62630.0, 8.316, 22.46984, 4377, 0.642
62630.0, 8.344, 22.60477, 4376, 0.642
62630.0, 8.375, 22.74574, 4375, 0.642
62630.0, 8.404, 22.88232, 4374, 0.642
62630.0, 8.435, 23.01972, 4373, 0.642
62630.0, 8.464, 23.15794, 4371, 0.642
62630.0, 8.496, 23.29700, 4370, 0.642
62630.0, 8.525, 23.43689, 4369, 0.642
62630.0, 8.557, 23.57762, 4368, 0.642
62640.0, 8.586, 23.71920, 4367, 0.642
62640.0, 8.618, 23.86712, 4365, 0.642
62640.0, 8.648, 24.01043, 4364, 0.642
62640.0, 8.680, 24.15461, 4363, 0.642
62640.0, 8.710, 24.29965, 4362, 0.642
62640.0, 8.742, 24.44556, 4360, 0.642
62640.0, 8.772, 24.59235, 4359, 0.642
62640.0, 8.804, 24.74002, 4358, 0.641
62640.0, 8.835, 24.88857, 4357, 0.641
62640.0, 8.867, 25.03802, 4355, 0.641
62640.0, 8.898, 25.19417, 4354, 0.641
62640.0, 8.931, 25.34545, 4353, 0.641
62640.0, 8.964, 25.49764, 4352, 0.641
62640.0, 8.995, 25.65075, 4350, 0.641
62640.0, 9.028, 25.80477, 4349, 0.641
62640.0, 9.059, 25.95972, 4348, 0.641
62640.0, 9.093, 26.11560, 4347, 0.641
62640.0, 9.126, 26.27242, 4345, 0.641
62650.0, 9.158, 26.43626, 4344, 0.641
62650.0, 9.192, 26.59500, 4343, 0.641
62650.0, 9.224, 26.75469, 4341, 0.641
62650.0, 9.258, 26.91535, 4340, 0.641
62650.0, 9.292, 27.07697, 4339, 0.641
62650.0, 9.324, 27.23955, 4338, 0.641
62650.0, 9.358, 27.40312, 4336, 0.641
62650.0, 9.393, 27.56767, 4335, 0.641
62650.0, 9.425, 27.73959, 4334, 0.641
62650.0, 9.460, 27.90615, 4332, 0.641
62650.0, 9.495, 28.07372, 4331, 0.641
62650.0, 9.528, 28.24230, 4330, 0.641
62650.0, 9.563, 28.41188, 4329, 0.641
62650.0, 9.598, 28.58249, 4327, 0.641
62650.0, 9.632, 28.75411, 4326, 0.640
62650.0, 9.667, 28.92677, 4325, 0.640
62650.0, 9.703, 29.10717, 4323, 0.640
62650.0, 9.736, 29.28195, 4322, 0.640
62650.0, 9.772, 29.45778, 4321, 0.640
62650.0, 9.808, 29.63466, 4319, 0.640
62660.0, 9.842, 29.81261, 4318, 0.640
62660.0, 9.879, 29.99163, 4317, 0.640
62660.0, 9.915, 30.17172, 4315, 0.640
62660.0, 9.952, 30.35289, 4314, 0.640
62660.0, 9.986, 30.54218, 4313, 0.640
62660.0, 10.023, 30.72557, 4311, 0.640
62660.0, 10.060, 30.91007, 4310, 0.640
62660.0, 10.097, 31.09568, 4309, 0.640
62660.0, 10.132, 31.28240, 4307, 0.640
62660.0, 10.170, 31.47024, 4306, 0.640
62660.0, 10.207, 31.65920, 4305, 0.640
62660.0, 10.245, 31.84931, 4303, 0.640
62660.0, 10.280, 32.04793, 4302, 0.640
62660.0, 10.318, 32.24037, 4301, 0.640
62660.0, 10.356, 32.43396, 4299, 0.640
62660.0, 10.394, 32.62872, 4298, 0.640
62660.0, 10.433, 32.82464, 4296, 0.640
62660.0, 10.469, 33.02174, 4295, 0.639
62660.0, 10.508, 33.22003, 4294, 0.639
62660.0, 10.546, 33.41950, 4292, 0.639
62660.0, 10.585, 33.62792, 4291, 0.639
62660.0, 10.624, 33.82984, 4290, 0.639
62670.0, 10.661, 34.03298, 4288, 0.639
62670.0, 10.700, 34.23734, 4287, 0.639
62670.0, 10.740, 34.44292, 4285, 0.639
62670.0, 10.780, 34.64974, 4284, 0.639
62670.0, 10.819, 34.85780, 4284, 0.639
62670.0, 10.859, 35.06711, 4282, 0.639
62670.0, 10.899, 35.28580, 4281, 0.639
62670.0, 10.937, 35.49768, 4279, 0.639
62670.0, 10.977, 35.71083, 4278, 0.639
62670.0, 11.018, 35.92527, 4277, 0.639
62670.0, 11.059, 36.14099, 4275, 0.639
62670.0, 11.099, 36.35800, 4274, 0.639
62670.0, 11.140, 36.57632, 4272, 0.639
62670.0, 11.181, 36.79595, 4271, 0.639
62670.0, 11.223, 37.01690, 4270, 0.639
62670.0, 11.264, 37.24775, 4268, 0.638
62670.0, 11.303, 37.47141, 4267, 0.638
62670.0, 11.345, 37.69641, 4265, 0.638
62670.0, 11.387, 37.92277, 4264, 0.638
62670.0, 11.429, 38.15048, 4262, 0.638
62670.0, 11.471, 38.37956, 4261, 0.638
62670.0, 11.513, 38.61002, 4259, 0.638
62670.0, 11.556, 38.84186, 4258, 0.638
62670.0, 11.598, 39.08409, 4257, 0.638
62670.0, 11.641, 39.31878, 4255, 0.638
62680.0, 11.684, 39.55487, 4254, 0.638
62680.0, 11.727, 39.79239, 4252, 0.638
62680.0, 11.771, 40.03133, 4251, 0.638
62680.0, 11.814, 40.27170, 4249, 0.638
62680.0, 11.858, 40.51352, 4248, 0.638
62680.0, 11.901, 40.75679, 4246, 0.638
62680.0, 11.945, 41.01097, 4245, 0.638
62680.0, 11.989, 41.25722, 4243, 0.638
62680.0, 12.034, 41.50496, 4242, 0.638
62680.0, 12.078, 41.75418, 4241, 0.637
62680.0, 12.123, 42.00490, 4239, 0.637
62680.0, 12.167, 42.25713, 4238, 0.637
62680.0, 12.212, 42.51087, 4236, 0.637
62680.0, 12.257, 42.76613, 4235, 0.637
62680.0, 12.303, 43.03284, 4234, 0.637
62680.0, 12.348, 43.29124, 4233, 0.637
62680.0, 12.394, 43.55119, 4231, 0.637
62680.0, 12.439, 43.81270, 4230, 0.637
62680.0, 12.485, 44.07578, 4228, 0.637
62680.0, 12.531, 44.34044, 4227, 0.637
62680.0, 12.578, 44.60669, 4225, 0.637
62680.0, 12.624, 44.87454, 4224, 0.637
62680.0, 12.671, 45.15439, 4222, 0.637
62680.0, 12.720, 45.42553, 4221, 0.637
62680.0, 12.767, 45.69830, 4219, 0.637
62680.0, 12.814, 45.97270, 4218, 0.637
62680.0, 12.862, 46.24875, 4216, 0.636
62680.0, 12.909, 46.52646, 4215, 0.636
62680.0, 12.957, 46.80584, 4213, 0.636
62690.0, 13.005, 47.08689, 4211, 0.636
62690.0, 13.053, 47.38054, 4210, 0.636
62690.0, 13.101, 47.66504, 4208, 0.636
62690.0, 13.152, 47.95126, 4207, 0.636
62690.0, 13.201, 48.23919, 4205, 0.636
62690.0, 13.250, 48.52885, 4204, 0.636
62690.0, 13.298, 48.82025, 4202, 0.636
62690.0, 13.348, 49.11340, 4201, 0.636
62690.0, 13.397, 49.40831, 4200, 0.636
62690.0, 13.449, 49.71644, 4199, 0.636
62690.0, 13.499, 50.01497, 4197, 0.636
62690.0, 13.549, 50.31529, 4195, 0.636
62690.0, 13.599, 50.61742, 4194, 0.635
62690.0, 13.649, 50.92136, 4192, 0.635
62690.0, 13.699, 51.22713, 4191, 0.635
62690.0, 13.753, 51.53473, 4189, 0.635
62690.0, 13.804, 51.84418, 4188, 0.635
62690.0, 13.855, 52.16750, 4186, 0.635
62690.0, 13.906, 52.48075, 4184, 0.635
62690.0, 13.957, 52.79588, 4183, 0.635
62690.0, 14.012, 53.11290, 4181, 0.635
62690.0, 14.064, 53.43182, 4180, 0.635
62690.0, 14.116, 53.75266, 4178, 0.635
62690.0, 14.168, 54.07543, 4177, 0.635
62690.0, 14.223, 54.40014, 4175, 0.635
62690.0, 14.276, 54.72679, 4173, 0.635
62690.0, 14.328, 55.06809, 4173, 0.635
62690.0, 14.381, 55.39875, 4171, 0.634
62690.0, 14.438, 55.73141, 4170, 0.634
62690.0, 14.491, 56.06606, 4168, 0.634
62690.0, 14.545, 56.40271, 4166, 0.634
62690.0, 14.602, 56.74139, 4165, 0.634
62690.0, 14.655, 57.08211, 4163, 0.634
62700.0, 14.710, 57.42487, 4162, 0.634
62700.0, 14.764, 57.78299, 4160, 0.634
62700.0, 14.822, 58.12996, 4158, 0.634
62700.0, 14.876, 58.47901, 4157, 0.634
62700.0, 14.931, 58.83016, 4155, 0.634
62700.0, 14.990, 59.18341, 4153, 0.634
62700.0, 15.045, 59.53879, 4152, 0.634
62700.0, 15.101, 59.89630, 4150, 0.634
62700.0, 15.160, 60.25596, 4149, 0.633
62700.0, 15.216, 60.63174, 4148, 0.633
62700.0, 15.272, 60.99581, 4146, 0.633
62700.0, 15.332, 61.36207, 4145, 0.633
62700.0, 15.389, 61.73053, 4143, 0.633
62700.0, 15.445, 62.10120, 4141, 0.633
62700.0, 15.506, 62.47410, 4140, 0.633
62700.0, 15.563, 62.84924, 4138, 0.633
62700.0, 15.624, 63.22662, 4136, 0.633
62700.0, 15.682, 63.62093, 4135, 0.633
62700.0, 15.740, 64.00295, 4133, 0.633
62700.0, 15.802, 64.38727, 4131, 0.633
62700.0, 15.860, 64.77389, 4130, 0.633
62700.0, 15.922, 65.16284, 4129, 0.632
62700.0, 15.981, 65.55412, 4127, 0.632
62700.0, 16.040, 65.94775, 4126, 0.632
62700.0, 16.103, 66.34375, 4124, 0.632
62700.0, 16.162, 66.75749, 4122, 0.632
62700.0, 16.226, 67.15835, 4121, 0.632
62700.0, 16.285, 67.56161, 4119, 0.632
62700.0, 16.349, 67.96730, 4117, 0.632
62700.0, 16.410, 68.37542, 4115, 0.632
62700.0, 16.470, 68.78599, 4114, 0.632
62700.0, 16.535, 69.19903, 4112, 0.632
62700.0, 16.596, 69.61455, 4111, 0.632
62700.0, 16.661, 70.04869, 4110, 0.631
62700.0, 16.722, 70.46931, 4108, 0.631
62700.0, 16.788, 70.89245, 4106, 0.631
62700.0, 16.850, 71.31814, 4104, 0.631
62700.0, 16.916, 71.74638, 4103, 0.631
62700.0, 16.979, 72.17719, 4101, 0.631
62700.0, 17.045, 72.61060, 4099, 0.631
62710.0, 17.108, 73.04660, 4098, 0.631
62710.0, 17.175, 73.50214, 4096, 0.631
62710.0, 17.239, 73.94350, 4094, 0.631
62710.0, 17.306, 74.38751, 4093, 0.631
62710.0, 17.370, 74.83418, 4092, 0.630
62710.0, 17.438, 75.28353, 4090, 0.630
62710.0, 17.507, 75.73559, 4088, 0.630
62710.0, 17.571, 76.19036, 4086, 0.630
62710.0, 17.640, 76.64785, 4085, 0.630
62710.0, 17.705, 77.10810, 4083, 0.630
62710.0, 17.775, 77.58897, 4081, 0.630
62710.0, 17.840, 78.05487, 4079, 0.630
62710.0, 17.910, 78.52356, 4078, 0.630
62710.0, 17.980, 78.99507, 4077, 0.630
62710.0, 18.047, 79.46941, 4075, 0.630
62710.0, 18.118, 79.94660, 4073, 0.629
62710.0, 18.184, 80.42665, 4072, 0.629
62710.0, 18.256, 80.90959, 4070, 0.629
62710.0, 18.327, 81.41417, 4068, 0.629
62710.0, 18.395, 81.90304, 4066, 0.629
62710.0, 18.467, 82.39484, 4065, 0.629
62710.0, 18.535, 82.88959, 4063, 0.629
62710.0, 18.608, 83.38732, 4062, 0.629
62710.0, 18.681, 83.88803, 4060, 0.629
62710.0, 18.750, 84.39175, 4058, 0.629
62710.0, 18.823, 84.89850, 4057, 0.628
62710.0, 18.897, 85.42795, 4055, 0.628
62710.0, 18.967, 85.94092, 4053, 0.628
62710.0, 19.041, 86.45697, 4051, 0.628
62710.0, 19.116, 86.97611, 4049, 0.628
62710.0, 19.187, 87.49838, 4049, 0.628
62710.0, 19.262, 88.02378, 4047, 0.628
62710.0, 19.337, 88.55233, 4045, 0.628
62710.0, 19.409, 89.08406, 4043, 0.628
62710.0, 19.485, 89.63962, 4041, 0.628
62710.0, 19.561, 90.17788, 4040, 0.627
62710.0, 19.634, 90.71936, 4038, 0.627
62710.0, 19.711, 91.26411, 4036, 0.627
62710.0, 19.788, 91.81212, 4035, 0.627
62710.0, 19.866, 92.36342, 4033, 0.627
62710.0, 19.939, 92.91803, 4031, 0.627
62710.0, 20.017, 93.47597, 4030, 0.627
62710.0, 20.096, 94.05892, 4028, 0.627
62710.0, 20.174, 94.62372, 4026, 0.627
62710.0, 20.249, 95.19190, 4024, 0.626
62710.0, 20.328, 95.76350, 4023, 0.626
62710.0, 20.408, 96.33853, 4021, 0.626
62710.0, 20.488, 96.91701, 4019, 0.626
62710.0, 20.564, 97.49896, 4018, 0.626
62710.0, 20.644, 98.08441, 4016, 0.626
62720.0, 20.725, 98.69610, 4014, 0.626
62720.0, 20.807, 99.28874, 4012, 0.626
62720.0, 20.888, 99.88494, 4011, 0.626
62720.0, 20.965, 100.48471, 4009, 0.625
62720.0, 21.047, 101.08809, 4007, 0.625
62720.0, 21.130, 101.69509, 4006, 0.625
62720.0, 21.213, 102.30574, 4004, 0.625
62720.0, 21.296, 102.92005, 4002, 0.625
62720.0, 21.375, 103.56190, 4000, 0.625
62720.0, 21.459, 104.18375, 3999, 0.625
62720.0, 21.543, 104.80934, 3997, 0.625
62720.0, 21.627, 105.43869, 3995, 0.625
62720.0, 21.712, 106.07181, 3993, 0.624
62720.0, 21.797, 106.70874, 3991, 0.624
62720.0, 21.883, 107.34949, 3989, 0.624
62720.0, 21.963, 107.99409, 3988, 0.624
62720.0, 22.050, 108.66758, 3987, 0.624
62720.0, 22.136, 109.32009, 3985, 0.624
62720.0, 22.223, 109.97653, 3983, 0.624
62720.0, 22.310, 110.63690, 3981, 0.624
62720.0, 22.398, 111.30124, 3979, 0.623
62720.0, 22.485, 111.96957, 3977, 0.623
62720.0, 22.574, 112.64191, 3976, 0.623
62720.0, 22.662, 113.31829, 3974, 0.623
62720.0, 22.746, 113.99873, 3972, 0.623
62720.0, 22.835, 114.70966, 3970, 0.623
62720.0, 22.925, 115.39846, 3968, 0.623
62720.0, 23.014, 116.09139, 3967, 0.623
62720.0, 23.105, 116.78848, 3966, 0.622
62720.0, 23.195, 117.48976, 3964, 0.622
62720.0, 23.286, 118.19524, 3962, 0.622
62720.0, 23.378, 118.90497, 3960, 0.622
62720.0, 23.469, 119.61895, 3958, 0.622
62720.0, 23.561, 120.36494, 3956, 0.622
62720.0, 23.654, 121.08769, 3955, 0.622
62720.0, 23.747, 121.81478, 3953, 0.621
62720.0, 23.840, 122.54624, 3951, 0.621
62720.0, 23.933, 123.28209, 3949, 0.621
62720.0, 24.027, 124.02236, 3947, 0.621
62720.0, 24.121, 124.76708, 3945, 0.621
62720.0, 24.216, 125.51626, 3944, 0.621
62720.0, 24.311, 126.29903, 3942, 0.621
62720.0, 24.406, 127.05741, 3940, 0.621
62720.0, 24.502, 127.82035, 3938, 0.620
62720.0, 24.598, 128.58787, 3936, 0.620
62720.0, 24.694, 129.36000, 3935, 0.620
62720.0, 24.791, 130.13676, 3933, 0.620
62720.0, 24.889, 130.91819, 3931, 0.620
62720.0, 24.986, 131.70431, 3929, 0.620
62720.0, 25.084, 132.52567, 3927, 0.620
62720.0, 25.183, 133.32144, 3926, 0.619
62720.0, 25.281, 134.12199, 3924, 0.619
62720.0, 25.386, 134.92735, 3922, 0.619
62720.0, 25.486, 135.73755, 3920, 0.619
62720.0, 25.586, 136.55261, 3918, 0.619
62720.0, 25.686, 137.37256, 3917, 0.619
62720.0, 25.787, 138.19744, 3915, 0.618
62720.0, 25.888, 139.05929, 3913, 0.618
62720.0, 25.990, 139.89429, 3911, 0.618
62720.0, 26.092, 140.73431, 3909, 0.618
62720.0, 26.194, 141.57938, 3908, 0.618
62720.0, 26.303, 142.42952, 3906, 0.618
62720.0, 26.406, 143.28476, 3904, 0.618
62720.0, 26.509, 144.14514, 3902, 0.617
62720.0, 26.613, 145.01068, 3900, 0.617
62720.0, 26.718, 145.91502, 3899, 0.617
62720.0, 26.823, 146.79119, 3897, 0.617
62730.0, 26.928, 147.67263, 3895, 0.617
62730.0, 27.040, 148.55935, 3893, 0.617
62730.0, 27.146, 149.45140, 3891, 0.616
62730.0, 27.252, 150.34881, 3889, 0.616
62730.0, 27.359, 151.25161, 3887, 0.616
62730.0, 27.466, 152.15982, 3885, 0.616
62730.0, 27.580, 153.10875, 3883, 0.616
62730.0, 27.689, 154.02811, 3882, 0.616
62730.0, 27.797, 154.95300, 3880, 0.615
62730.0, 27.906, 155.88345, 3878, 0.615
62730.0, 28.016, 156.81948, 3876, 0.615
62730.0, 28.132, 157.76113, 3874, 0.615
62730.0, 28.242, 158.70843, 3873, 0.615
62730.0, 28.353, 159.66142, 3871, 0.615
62730.0, 28.464, 160.65713, 3869, 0.614
62730.0, 28.582, 161.62182, 3867, 0.614
62730.0, 28.695, 162.59231, 3865, 0.614
62730.0, 28.807, 163.56862, 3863, 0.614
62730.0, 28.920, 164.55080, 3861, 0.614
62730.0, 29.040, 165.53888, 3859, 0.614
62730.0, 29.154, 166.53288, 3857, 0.613
62730.0, 29.268, 167.53286, 3856, 0.613
62730.0, 29.390, 168.53884, 3854, 0.613
62730.0, 29.505, 169.58991, 3852, 0.613
62730.0, 29.621, 170.60824, 3850, 0.613
62730.0, 29.744, 171.63269, 3848, 0.612
62730.0, 29.861, 172.66329, 3846, 0.612
62730.0, 29.978, 173.70007, 3844, 0.612
62730.0, 30.102, 174.74309, 3842, 0.612
62730.0, 30.220, 175.79236, 3841, 0.612
62730.0, 30.339, 176.84794, 3839, 0.612
62730.0, 30.465, 177.95082, 3837, 0.611
62730.0, 30.584, 179.01936, 3834, 0.611
62730.0, 30.704, 180.09431, 3833, 0.611
62730.0, 30.832, 181.17572, 3831, 0.611
62730.0, 30.953, 182.26362, 3829, 0.611
62730.0, 31.074, 183.35806, 3827, 0.610
62730.0, 31.203, 184.45906, 3826, 0.610
62730.0, 31.326, 185.56668, 3823, 0.610
62730.0, 31.456, 186.72394, 3821, 0.610
62730.0, 31.579, 187.84516, 3819, 0.610
62730.0, 31.703, 188.97311, 3818, 0.609
62730.0, 31.835, 190.10783, 3816, 0.609
62730.0, 31.960, 191.24936, 3814, 0.609
62730.0, 32.092, 192.39775, 3812, 0.609
62730.0, 32.218, 193.55304, 3810, 0.609
62730.0, 32.352, 194.71526, 3808, 0.608
62730.0, 32.479, 195.92958, 3806, 0.608
62730.0, 32.614, 197.10607, 3805, 0.608
62730.0, 32.742, 198.28963, 3802, 0.608
62730.0, 32.870, 199.48029, 3800, 0.608
62730.0, 33.007, 200.67811, 3798, 0.607
62730.0, 33.136, 201.88312, 3797, 0.607
62730.0, 33.274, 203.09536, 3795, 0.607
62730.0, 33.404, 204.31488, 3792, 0.607
62730.0, 33.543, 205.58906, 3791, 0.606
62730.0, 33.674, 206.82356, 3789, 0.606
62730.0, 33.814, 208.06546, 3787, 0.606
62730.0, 33.947, 209.31483, 3784, 0.606
62730.0, 34.088, 210.57170, 3783, 0.606
62730.0, 34.222, 211.83611, 3781, 0.605
62730.0, 34.364, 213.10812, 3779, 0.605
62730.0, 34.506, 214.38777, 3777, 0.605
62730.0, 34.642, 215.72476, 3775, 0.605
62730.0, 34.786, 217.02012, 3773, 0.604
62730.0, 34.922, 218.32326, 3771, 0.604
62730.0, 35.067, 219.63422, 3770, 0.604
62730.0, 35.205, 220.95305, 3767, 0.604
62730.0, 35.351, 222.27980, 3765, 0.604
62730.0, 35.498, 223.61452, 3764, 0.603
62730.0, 35.637, 224.95725, 3761, 0.603
62730.0, 35.785, 226.36016, 3759, 0.603
62730.0, 35.925, 227.71938, 3758, 0.603
62730.0, 36.074, 229.08677, 3756, 0.602
62730.0, 36.224, 230.46236, 3753, 0.602
62730.0, 36.366, 231.84621, 3751, 0.602
62730.0, 36.517, 233.23837, 3750, 0.602
62730.0, 36.669, 234.63889, 3748, 0.601
62730.0, 36.813, 236.04782, 3745, 0.601
62730.0, 36.966, 237.51990, 3744, 0.601
62730.0, 37.111, 238.94613, 3742, 0.601
62730.0, 37.265, 240.38092, 3739, 0.600
62730.0, 37.420, 241.82433, 3738, 0.600
62730.0, 37.575, 243.27641, 3736, 0.600
62730.0, 37.722, 244.73721, 3733, 0.600
62730.0, 37.879, 246.20678, 3732, 0.599
62730.0, 38.036, 247.68517, 3730, 0.599
62730.0, 38.186, 249.17244, 3727, 0.599
62730.0, 38.344, 250.72636, 3726, 0.599
62730.0, 38.503, 252.23189, 3724, 0.598
62730.0, 38.654, 253.74646, 3721, 0.598
62730.0, 38.815, 255.27013, 3720, 0.598
62730.0, 38.976, 256.80295, 3718, 0.598
62730.0, 39.138, 258.34496, 3715, 0.597
62730.0, 39.292, 259.89624, 3714, 0.597
62730.0, 39.455, 261.45684, 3712, 0.597
62730.0, 39.619, 263.08737, 3709, 0.597
62730.0, 39.783, 264.66713, 3708, 0.596
62730.0, 39.948, 266.25637, 3706, 0.596
62730.0, 40.105, 267.85515, 3703, 0.596
62730.0, 40.272, 269.46353, 3702, 0.595
62740.0, 40.439, 271.08157, 3700, 0.595
62740.0, 40.607, 272.70933, 3697, 0.595
62740.0, 40.776, 274.34686, 3696, 0.595
62740.0, 40.935, 276.05779, 3693, 0.594
62740.0, 41.106, 277.71542, 3691, 0.594
62740.0, 41.276, 279.38302, 3690, 0.594
62740.0, 41.448, 281.06062, 3687, 0.594
62740.0, 41.620, 282.74830, 3686, 0.593
62740.0, 41.793, 284.44611, 3683, 0.593
62740.0, 41.966, 286.15412, 3681, 0.593
62740.0, 42.131, 287.87238, 3680, 0.592
62740.0, 42.306, 289.66765, 3677, 0.592
62740.0, 42.482, 291.40701, 3675, 0.592
62740.0, 42.658, 293.15682, 3673, 0.591
62740.0, 42.835, 294.91713, 3671, 0.591
62740.0, 43.013, 296.68801, 3669, 0.591
62740.0, 43.192, 298.46953, 3667, 0.591
62740.0, 43.371, 300.26174, 3665, 0.590
62740.0, 43.551, 302.06472, 3663, 0.590
62740.0, 43.732, 303.94850, 3661, 0.590
62740.0, 43.914, 305.77361, 3658, 0.589
62740.0, 44.096, 307.60968, 3657, 0.589
62740.0, 44.269, 309.45678, 3654, 0.589
62740.0, 44.453, 311.31497, 3653, 0.588
62740.0, 44.638, 313.18431, 3651, 0.588
62740.0, 44.823, 315.06488, 3648, 0.588
62740.0, 45.009, 316.95675, 3647, 0.587
62740.0, 45.196, 318.93340, 3644, 0.587
62740.0, 45.384, 320.84849, 3643, 0.587
62740.0, 45.572, 322.77508, 3640, 0.586
62740.0, 45.761, 324.71324, 3638, 0.586
62740.0, 45.952, 326.66304, 3636, 0.586
62740.0, 46.153, 328.62455, 3634, 0.586
62740.0, 46.345, 330.59783, 3632, 0.585
62740.0, 46.537, 332.58296, 3630, 0.585
62740.0, 46.730, 334.65707, 3627, 0.585
62740.0, 46.925, 336.66657, 3626, 0.584
62740.0, 47.119, 338.68815, 3623, 0.584
62740.0, 47.315, 340.72186, 3622, 0.583
62740.0, 47.512, 342.76779, 3619, 0.583
62740.0, 47.709, 344.82600, 3617, 0.583
62740.0, 47.907, 346.89657, 3615, 0.582
62740.0, 48.106, 348.97957, 3613, 0.582
62740.0, 48.306, 351.15592, 3611, 0.582
62740.0, 48.518, 353.26450, 3609, 0.581
62740.0, 48.719, 355.38574, 3607, 0.581
62740.0, 48.922, 357.51972, 3604, 0.581
62740.0, 49.125, 359.66651, 3602, 0.580
62740.0, 49.329, 361.82619, 3600, 0.580
62740.0, 49.534, 363.99884, 3598, 0.580
62740.0, 49.751, 366.18454, 3596, 0.579
62740.0, 49.957, 368.38336, 3594, 0.579
62740.0, 50.165, 370.68072, 3592, 0.578
62740.0, 50.373, 372.90654, 3590, 0.578
62740.0, 50.582, 375.14572, 3588, 0.578
62740.0, 50.804, 377.39835, 3585, 0.577
62740.0, 51.015, 379.66451, 3583, 0.577
62740.0, 51.227, 381.94427, 3581, 0.577
62740.0, 51.440, 384.23772, 3579, 0.576
62740.0, 51.665, 386.54495, 3577, 0.576
62740.0, 51.880, 388.95557, 3574, 0.575
62740.0, 52.095, 391.29113, 3573, 0.575
62740.0, 52.312, 393.64070, 3570, 0.575
62740.0, 52.541, 396.00439, 3569, 0.574
62740.0, 52.759, 398.38227, 3566, 0.574
62740.0, 52.979, 400.77443, 3564, 0.573
62740.0, 53.211, 403.18095, 3562, 0.573
62740.0, 53.432, 405.60192, 3560, 0.573
62740.0, 53.654, 408.13139, 3557, 0.572
62740.0, 53.889, 410.58209, 3555, 0.572
62740.0, 54.113, 413.04750, 3553, 0.571
62740.0, 54.338, 415.52772, 3551, 0.571
62740.0, 54.576, 418.02283, 3549, 0.571
62740.0, 54.802, 420.53292, 3547, 0.570
62740.0, 55.043, 423.05809, 3545, 0.570
62740.0, 55.271, 425.59841, 3542, 0.569
62740.0, 55.501, 428.25259, 3540, 0.569
62740.0, 55.744, 430.82411, 3538, 0.568
62740.0, 55.976, 433.41107, 3536, 0.568
62740.0, 56.221, 436.01356, 3533, 0.568
62740.0, 56.455, 438.63168, 3531, 0.567
62740.0, 56.702, 441.26553, 3529, 0.567
62740.0, 56.938, 443.91518, 3527, 0.566
62740.0, 57.174, 446.58075, 3525, 0.566
62740.0, 57.425, 449.36578, 3523, 0.565
62740.0, 57.663, 452.06408, 3520, 0.565
62740.0, 57.916, 454.77858, 3518, 0.564
62740.0, 58.157, 457.50938, 3516, 0.564
62740.0, 58.412, 460.25657, 3514, 0.564
62740.0, 58.654, 463.02027, 3512, 0.563
62740.0, 58.911, 465.80055, 3509, 0.563
62740.0, 59.170, 468.59754, 3508, 0.562
62740.0, 59.416, 471.51987, 3505, 0.562
62740.0, 59.676, 474.35120, 3503, 0.561
62740.0, 59.924, 477.19952, 3500, 0.561
62740.0, 60.187, 480.06495, 3498, 0.560
62740.0, 60.451, 482.94759, 3496, 0.560
62740.0, 60.702, 485.84753, 3494, 0.559
62740.0, 60.968, 488.76489, 3491, 0.559
62740.0, 61.221, 491.69976, 3489, 0.558
62740.0, 61.489, 494.76617, 3487, 0.558
62740.0, 61.759, 497.73708, 3485, 0.557
62740.0, 62.015, 500.72584, 3483, 0.557
62740.0, 62.287, 503.73253, 3480, 0.556
62740.0, 62.560, 506.75728, 3478, 0.556
62740.0, 62.820, 509.80020, 3476, 0.555
62740.0, 63.096, 512.86138, 3474, 0.555
62740.0, 63.372, 515.94095, 3471, 0.554
62740.0, 63.650, 519.15854, 3469, 0.554
62740.0, 63.915, 522.27592, 3467, 0.553
62740.0, 64.195, 525.41202, 3464, 0.553
62740.0, 64.476, 528.56694, 3463, 0.552
62740.0, 64.759, 531.74082, 3460, 0.551
62740.0, 65.028, 534.93375, 3458, 0.551
62740.0, 65.313, 538.14586, 3455, 0.550
62740.0, 65.599, 541.37725, 3453, 0.550
62740.0, 65.887, 544.62804, 3451, 0.549
62740.0, 66.176, 548.02453, 3448, 0.549
62740.0, 66.451, 551.31524, 3446, 0.548
62740.0, 66.742, 554.62571, 3444, 0.548
62740.0, 67.035, 557.95606, 3442, 0.547
62740.0, 67.329, 561.30641, 3440, 0.547
62740.0, 67.624, 564.67687, 3437, 0.546
62740.0, 67.920, 568.06757, 3435, 0.545
62740.0, 68.218, 571.47864, 3432, 0.545
62740.0, 68.517, 575.04257, 3430, 0.544
62740.0, 68.818, 578.49552, 3428, 0.544
62740.0, 69.119, 581.96920, 3425, 0.543
62740.0, 69.422, 585.46374, 3423, 0.542
62740.0, 69.727, 588.97926, 3421, 0.542
62740.0, 70.016, 592.51589, 3418, 0.541
62740.0, 70.323, 596.07375, 3416, 0.541
62740.0, 70.648, 599.65299, 3414, 0.540
62740.0, 70.958, 603.39263, 3411, 0.539
62740.0, 71.269, 607.01581, 3409, 0.539
62740.0, 71.581, 610.66074, 3406, 0.538
62740.0, 71.895, 614.32756, 3404, 0.538
62740.0, 72.210, 618.01640, 3402, 0.537
62740.0, 72.527, 621.72739, 3399, 0.536
62740.0, 72.845, 625.46066, 3397, 0.536
62740.0, 73.164, 629.21635, 3395, 0.535
62740.0, 73.485, 633.14036, 3392, 0.534
62740.0, 73.807, 636.94217, 3390, 0.534
62740.0, 74.148, 640.76680, 3388, 0.533
62740.0, 74.473, 644.61440, 3385, 0.532
62740.0, 74.800, 648.48510, 3383, 0.532
62740.0, 75.128, 652.37904, 3381, 0.531
62740.0, 75.457, 656.29637, 3378, 0.530
62740.0, 75.805, 660.23721, 3376, 0.530
62740.0, 76.138, 664.35468, 3374, 0.529
62740.0, 76.472, 668.34392, 3371, 0.528
62740.0, 76.807, 672.35711, 3368, 0.528
62740.0, 77.161, 676.39439, 3366, 0.527
62740.0, 77.500, 680.45592, 3364, 0.526
62740.0, 77.839, 684.54184, 3361, 0.526
62740.0, 78.199, 688.65230, 3359, 0.525
62740.0, 78.542, 692.78743, 3357, 0.524
62740.0, 78.886, 697.10789, 3354, 0.524
62740.0, 79.250, 701.29380, 3352, 0.523
62740.0, 79.598, 705.50484, 3349, 0.522
62740.0, 79.965, 709.74117, 3347, 0.521
62740.0, 80.316, 714.00294, 3344, 0.521
62740.0, 80.668, 718.29030, 3342, 0.520
62740.0, 81.040, 722.60340, 3340, 0.519
62740.0, 81.395, 726.94240, 3337, 0.518
62740.0, 81.771, 731.47586, 3334, 0.518
62740.0, 82.130, 735.86814, 3332, 0.517
62740.0, 82.509, 740.28679, 3330, 0.516
62740.0, 82.871, 744.73197, 3327, 0.515
62740.0, 83.253, 749.20385, 3324, 0.515
62740.0, 83.637, 753.70258, 3322, 0.514
62740.0, 84.004, 758.22832, 3320, 0.513
62740.0, 84.392, 762.78123, 3317, 0.512
62740.0, 84.762, 767.36149, 3314, 0.511
62740.0, 85.153, 772.14702, 3312, 0.511
62740.0, 85.546, 776.78351, 3309, 0.510
62740.0, 85.921, 781.44785, 3307, 0.509
62740.0, 86.318, 786.14019, 3304, 0.508
62740.0, 86.716, 790.86071, 3302, 0.507
62740.0, 87.116, 795.60957, 3299, 0.506
62740.0, 87.498, 800.38695, 3297, 0.506
62740.0, 87.902, 805.19302, 3294, 0.505
62740.0, 88.308, 810.21448, 3292, 0.504
62740.0, 88.716, 815.07956, 3289, 0.503
62740.0, 89.125, 819.97385, 3286, 0.502
62740.0, 89.536, 824.89752, 3284, 0.501
62740.0, 89.929, 829.85077, 3281, 0.500
62740.0, 90.344, 834.83375, 3279, 0.500
62740.0, 90.761, 839.84666, 3276, 0.499
62740.0, 91.180, 844.88967, 3273, 0.498
62740.0, 91.601, 850.15869, 3271, 0.497
62740.0, 92.024, 855.26362, 3268, 0.496
62740.0, 92.449, 860.39920, 3266, 0.495
62740.0, 92.875, 865.56562, 3263, 0.494
62740.0, 93.304, 870.76307, 3261, 0.493
62740.0, 93.735, 875.99172, 3258, 0.492
62740.0, 94.059, 881.25177, 3258, 0.491
62740.0, 94.384, 886.54340, 3257, 0.490
62740.0, 94.711, 892.07219, 3256, 0.489
62740.0, 95.017, 897.42879, 3255, 0.488
62740.0, 95.345, 902.81756, 3255, 0.487
62740.0, 95.653, 908.23869, 3255, 0.486
62740.0, 95.984, 913.69237, 3254, 0.485
62740.0, 96.294, 919.17880, 3253, 0.484
62740.0, 96.605, 924.69817, 3253, 0.483
62740.0, 96.917, 930.25069, 3252, 0.482
62740.0, 97.230, 936.05205, 3252, 0.481
62740.0, 97.544, 941.67274, 3252, 0.480
62740.0, 97.836, 947.32718, 3252, 0.479
62740.0, 98.152, 953.01558, 3252, 0.478
62740.0, 98.446, 958.73813, 3252, 0.477
62740.0, 98.742, 964.49504, 3252, 0.476
62740.0, 99.038, 970.28652, 3252, 0.475
62740.0, 99.334, 976.11278, 3252, 0.474
62740.0, 99.632, 982.20016, 3252, 0.473
62740.0, 99.908, 988.09795, 3252, 0.472
62740.0, 100.184, 994.03116, 3252, 0.471
62750.0, 100.462, 1000.00000, 3253, 0.470
62750.0, 100.740, 1006.00468, 3253, 0.469
62750.0, 100.995, 1012.04541, 3254, 0.468
62750.0, 101.251, 1018.12242, 3255, 0.467
62750.0, 101.508, 1024.23591, 3255, 0.466
62750.0, 101.765, 1030.62340, 3256, 0.465
62750.0, 102.000, 1036.81196, 3258, 0.463
62750.0, 102.235, 1043.03769, 3258, 0.462
62750.0, 102.447, 1049.30079, 3260, 0.461
62750.0, 102.660, 1055.60150, 3261, 0.460
62750.0, 102.873, 1061.94005, 3263, 0.459
62750.0, 103.062, 1068.31666, 3265, 0.458
62750.0, 103.252, 1074.73155, 3267, 0.457
62750.0, 103.419, 1081.18497, 3270, 0.455
62750.0, 103.562, 1087.92761, 3272, 0.454
62750.0, 103.705, 1094.46027, 3275, 0.453
62750.0, 103.825, 1101.03215, 3278, 0.452
62750.0, 103.920, 1107.64349, 3281, 0.451
62750.0, 103.992, 1114.29453, 3285, 0.450
62750.0, 104.040, 1120.98551, 3289, 0.448
62750.0, 104.064, 1127.71667, 3294, 0.447
62750.0, 104.064, 1134.48824, 3298, 0.446
62750.0, 103.992, 1141.30048, 3304, 0.445
62750.0, 103.896, 1148.41802, 3311, 0.444
62750.0, 103.753, 1155.31390, 3318, 0.442
62750.0, 103.538, 1162.25119, 3327, 0.441
62750.0, 103.229, 1169.23013, 3337, 0.440
62750.0, 102.825, 1176.25098, 3348, 0.439
62750.0, 102.306, 1183.31399, 3362, 0.437
62750.0, 101.625, 1190.41941, 3378, 0.436
62750.0, 100.716, 1197.56750, 3399, 0.435
62750.0, 99.518, 1204.48113, 3424, 0.434
62750.0, 97.904, 1211.71365, 3457, 0.432
62750.0, 95.697, 1218.98960, 3502, 0.431
62750.0, 92.619, 1226.02690, 3565, 0.430
62750.0, 88.206, 1233.10483, 3658, 0.429
62750.0, 81.846, 1239.65261, 3803, 0.428
62750.0, 72.678, 1246.23516, 4041, 0.427
62750.0, 60.090, 1251.69927, 4448, 0.426
62750.0, 44.668, 1256.02996, 5164, 0.425
62750.0, 35.156, 1257.76643, 5824, 0.425
62750.0, 28.695, 1258.63557, 6448, 0.425
62750.0, 23.895, 1259.21532, 7065, 0.425
62750.0, 20.165, 1259.21532, 7691, 0.424
62750.0, 17.049, 1259.21532, 8364, 0.424
62750.0, 14.272, 1258.63557, 9141, 0.424
62750.0, 11.830, 1257.76643, 10039, 0.424
62750.0, 9.712, 1256.89790, 11076, 0.424
62750.0, 7.892, 1255.45167, 12286, 0.424
62750.0, 6.346, 1253.42975, 13693, 0.424
62750.0, 5.026, 1250.83493, 15382, 0.424
62750.0, 3.900, 1247.38351, 17446, 0.424
62750.0, 2.965, 1243.08264, 19994, 0.424
62750.0, 2.207, 1237.37119, 23147, 0.424
62750.0, 1.610, 1229.98552, 27064, 0.424
62750.0, 1.151, 1220.67486, 31937, 0.424
62750.0, 0.810, 1208.92679, 37993, 0.424
62750.0, 0.561, 1194.26306, 45488, 0.424
62750.0, 0.386, 1175.70943, 54676, 0.424
62750.0, 0.264, 1152.12606, 65781, 0.424
62750.0, 0.181, 1122.79378, 78922, 0.424
62750.0, 0.125, 1085.67541, 94059, 0.424
62750.0, 0.088, 1039.44138, 110866, 0.424
62750.0, 0.064, 981.97402, 128647, 0.424
62750.0, 0.047, 912.01084, 146352, 0.424
62750.0, 0.037, 828.51428, 162667, 0.424
62750.0, 0.029, 732.65581, 176157, 0.424
62750.0, 0.024, 628.05836, 185695, 0.424
62750.0, 0.021, 521.55486, 190590, 0.424
62750.0, 0.019, 422.47401, 191117, 0.424
62750.0, 0.017, 311.96078, 186767, 0.424
62750.0, 0.016, 207.58693, 176360, 0.424
62750.0, 0.016, 202.95511, 175752, 0.424
62750.0, 0.016, 73.09708, 136144, 0.424
62750.0, 0.016, 5.71084, 71978, 0.424
62760.0, 0.016, 0.24860, 32878, 0.424
62870.0, 0.016, 0.00999, 14720, 0.424
63370.0, 0.016, 0.00100, 8274, 0.424
63870.0, 0.016, 0.00044, 6725, 0.424
64370.0, 0.016, 0.00026, 5910, 0.424
64870.0, 0.016, 0.00018, 5379, 0.424
65370.0, 0.016, 0.00013, 4995, 0.424
65870.0, 0.016, 0.00010, 4699, 0.424
66370.0, 0.016, 0.00008, 4461, 0.424
66870.0, 0.016, 0.00007, 4263, 0.424
67370.0, 0.016, 0.00006, 4095, 0.424
67870.0, 0.016, 0.00005, 3951, 0.424
68370.0, 0.016, 0.00005, 3824, 0.424
68870.0, 0.016, 0.00004, 3711, 0.424
69370.0, 0.016, 0.00004, 3611, 0.424
69870.0, 0.016, 0.00003, 3520, 0.424
70370.0, 0.016, 0.00003, 3437, 0.424
